Time [s]	Current [A]	Voltage [V]	
0.798560	0.000000	0.000001
1.051407	0.000000	0.000008
1.301809	0.000000	0.000040
1.551419	0.000000	0.000046
1.801421	1.210000	0.000058
2.051694	1.230000	0.000068
2.301483	1.610000	0.000082
2.551145	1.610000	0.000085
2.802707	2.010000	0.000099
3.051180	2.210000	0.000107
3.301185	2.410000	0.000115
3.551209	2.430000	0.000128
3.801853	2.810000	0.000128
4.052097	2.830000	0.000143
4.301578	3.210000	0.000154
4.551617	3.220000	0.000167
4.801280	3.610000	0.000178
5.051496	3.810000	0.000188
5.301687	4.010000	0.000197
5.551310	4.210000	0.000199
5.805934	4.220000	0.000209
6.055329	4.610000	0.000218
6.305706	4.630000	0.000236
6.555701	5.010000	0.000248
6.805710	5.040000	0.000256
7.055403	5.410000	0.000268
7.320833	5.610000	0.000278
7.570425	5.630000	0.000277
7.821220	6.010000	0.000287
8.070461	6.030000	0.000297
8.320790	6.410000	0.000313
8.570496	6.430000	0.000329
8.820508	6.810000	0.000337
9.070525	7.010000	0.000347
9.335227	7.130000	0.000346
9.593953	7.410000	0.000356
9.843547	7.430000	0.000370
10.093874	7.820000	0.000383
10.343917	7.840000	0.000397
10.593605	8.220000	0.000409
10.843619	8.420000	0.000421
11.107958	8.610000	0.000425
11.357636	8.810000	0.000426
11.607691	8.950000	0.000451
11.866982	9.220000	0.000451
12.118087	9.240000	0.000452
12.367699	9.610000	0.000474
12.617729	9.640000	0.000483
12.867746	10.010000	0.000496
13.117755	10.030000	0.000510
13.367762	10.410000	0.000513
13.632959	10.610000	0.000519
13.892188	10.640000	0.000525
14.141798	11.010000	0.000537
14.392101	11.030000	0.000554
14.641843	11.410000	0.000568
14.891857	11.430000	0.000577
15.141878	11.810000	0.000589
15.405556	12.010000	0.000591
15.663694	12.040000	0.000596
15.912894	12.410000	0.000606
16.162926	12.430000	0.000623
16.412938	12.810000	0.000638
16.662953	12.840000	0.000641
16.912972	13.220000	0.000655
17.178444	13.420000	0.000666
17.428282	13.560000	0.000673
17.679330	13.820000	0.000677
17.929011	13.840000	0.000693
18.179046	14.220000	0.000702
18.429056	14.240000	0.000718
18.679088	14.620000	0.000725
18.929084	14.810000	0.000735
19.179292	14.950000	0.000735
19.451112	15.220000	0.000744
19.701115	15.250000	0.000755
19.951429	15.630000	0.000770
20.201159	15.640000	0.000786
20.451180	16.010000	0.000791
20.701193	16.220000	0.000800
20.951303	16.350000	0.000805
21.224932	16.620000	0.000809
21.474215	16.630000	0.000831
21.724509	17.010000	0.000841
21.974257	17.030000	0.000858
22.224546	17.410000	0.000862
22.474291	17.610000	0.000875
22.724297	17.820000	0.000886
22.974319	17.840000	0.000892
23.224334	18.220000	0.000908
23.474329	18.240000	0.000911
23.724358	18.610000	0.000926
23.974379	18.820000	0.000927
24.224370	19.010000	0.000939
24.474401	19.040000	0.000954
24.724415	19.410000	0.000956
24.974686	19.440000	0.000968
25.224444	19.810000	0.000977
25.474441	19.840000	0.000983
25.724727	20.220000	0.000999
25.974753	20.240000	0.001012
26.224507	20.610000	0.001024
26.474529	20.810000	0.001031
26.739455	21.010000	0.001042
26.988539	21.210000	0.001042
27.239977	21.230000	0.001053
27.489572	21.620000	0.001064
27.739848	21.630000	0.001078
27.989598	22.010000	0.001093
28.239915	22.030000	0.001106
28.489638	22.420000	0.001113
28.753877	22.620000	0.001115
29.012360	22.640000	0.001122
29.261681	23.020000	0.001130
29.511973	23.040000	0.001156
29.761718	23.420000	0.001164
30.012861	23.440000	0.001171
30.261734	23.820000	0.001184
30.526771	24.020000	0.001181
30.785309	24.040000	0.001193
31.034776	24.420000	0.001209
31.285048	24.440000	0.001217
31.534803	24.820000	0.001233
31.784826	24.840000	0.001240
32.034843	25.220000	0.001252
32.298967	25.420000	0.001254
32.557205	25.440000	0.001262
32.806861	25.810000	0.001274
33.056911	25.950000	0.001285
33.309316	26.210000	0.001291
33.558905	26.240000	0.001302
33.809192	26.620000	0.001318
34.058946	26.630000	0.001334
34.308966	27.010000	0.001340
34.559040	27.210000	0.001353
34.824911	27.350000	0.001349
35.082219	27.620000	0.001361
35.332011	27.630000	0.001369
35.582314	28.020000	0.001386
35.832323	28.040000	0.001402
36.082076	28.420000	0.001409
36.332084	28.620000	0.001424
36.597613	28.740000	0.001422
36.854713	29.020000	0.001428
37.104107	29.040000	0.001442
37.354392	29.420000	0.001459
37.604149	29.440000	0.001471
37.854169	29.830000	0.001478
38.104185	30.020000	0.001489
38.369189	30.150000	0.001491
38.628368	30.420000	0.001499
38.878429	30.430000	0.001515
39.128496	30.820000	0.001531
39.378254	30.840000	0.001542
39.628293	31.220000	0.001550
39.878328	31.410000	0.001561
40.141958	31.620000	0.001569
40.391371	31.820000	0.001572
40.642367	31.840000	0.001582
40.892327	32.220000	0.001589
41.142619	32.230000	0.001609
41.392679	32.620000	0.001620
41.642387	32.640000	0.001633
41.892427	33.020000	0.001640
42.157714	33.220000	0.001650
42.425116	33.360000	0.001652
42.683636	33.620000	0.001661
42.933445	33.640000	0.001669
43.183481	34.020000	0.001690
43.435298	34.040000	0.001688
43.684505	34.410000	0.001700
43.934740	34.430000	0.001714
44.184533	34.820000	0.001725
44.434539	34.830000	0.001740
44.684564	35.210000	0.001751
44.949780	35.420000	0.001752
45.208185	35.430000	0.001760
45.457586	35.810000	0.001772
45.707916	35.840000	0.001783
45.957628	36.210000	0.001797
46.208015	36.410000	0.001806
46.457661	36.610000	0.001817
46.721717	36.750000	0.001819
46.980168	37.010000	0.001827
47.229690	37.030000	0.001840
47.479989	37.420000	0.001855
47.729729	37.440000	0.001866
47.979747	37.820000	0.001878
48.229766	38.020000	0.001892
48.494515	38.150000	0.001889
48.752848	38.420000	0.001900
49.002788	38.440000	0.001912
49.253069	38.820000	0.001926
49.503075	38.840000	0.001930
49.753104	39.040000	0.001946
50.002862	39.420000	0.001960
50.266606	39.620000	0.001958
50.526240	39.640000	0.001967
50.776113	40.030000	0.001982
51.026250	40.150000	0.001993
51.277956	40.430000	0.001999
51.528161	40.440000	0.002012
51.778233	40.820000	0.002025
52.028237	40.840000	0.002026
52.277244	41.220000	0.002039
52.539819	41.250000	0.002045
52.789022	41.620000	0.002058
53.039295	41.750000	0.002073
53.289445	42.030000	0.002076
53.539286	42.150000	0.002090
53.800962	42.430000	0.002098
54.050078	42.440000	0.002111
54.300368	42.820000	0.002122
54.550446	42.830000	0.002137
54.800136	43.210000	0.002147
55.050149	43.410000	0.002155
55.315084	43.620000	0.002167
55.584441	43.820000	0.002166
55.841835	43.830000	0.002177
56.091202	44.220000	0.002186
56.341524	44.230000	0.002202
56.591254	44.620000	0.002215
56.841243	44.630000	0.002216
57.091509	45.020000	0.002230
57.341589	45.030000	0.002244
57.591305	45.420000	0.002257
57.841329	45.620000	0.002268
58.108951	45.820000	0.002277
58.378826	45.830000	0.002279
58.628360	46.220000	0.002297
58.878369	46.230000	0.002306
59.128391	46.610000	0.002316
59.378403	46.630000	0.002325
59.628410	47.020000	0.002336
59.878437	47.220000	0.002342
60.150978	47.420000	0.002352
60.400746	47.440000	0.002364
60.650479	47.820000	0.002376
60.900490	48.020000	0.002386
61.171044	48.220000	0.002390
61.420800	48.240000	0.002404
61.670854	48.620000	0.002415
61.920546	48.830000	0.002424
62.188425	49.020000	0.002435
62.437560	49.040000	0.002443
62.687586	49.420000	0.002456
62.937604	49.440000	0.002466
63.187621	49.830000	0.002475
63.450471	50.030000	0.002484
63.718783	50.140000	0.002485
63.977338	50.430000	0.002495
64.226676	50.440000	0.002508
64.477208	50.830000	0.002520
64.727006	50.840000	0.002535
64.976734	51.230000	0.002545
65.226741	51.430000	0.002554
65.492492	51.540000	0.002555
65.749964	51.810000	0.002565
65.999761	51.830000	0.002574
66.250097	52.220000	0.002590
66.499813	52.220000	0.002604
66.749834	52.620000	0.002615
66.999833	52.820000	0.002625
67.264337	52.940000	0.002624
67.522690	53.220000	0.002633
67.771897	53.340000	0.002645
68.033587	53.620000	0.002654
68.282900	53.640000	0.002669
68.533194	54.010000	0.002680
68.782937	54.030000	0.002693
69.032946	54.420000	0.002704
69.282999	54.610000	0.002712
69.547796	54.730000	0.002713
69.805367	55.020000	0.002724
70.054994	55.030000	0.002733
70.305324	55.410000	0.002748
70.555323	55.430000	0.002754
70.805306	55.630000	0.002774
71.055068	56.020000	0.002784
71.318980	56.220000	0.002793
71.587332	56.320000	0.002793
71.846688	56.620000	0.002803
72.096111	56.630000	0.002813
72.346404	57.020000	0.002828
72.596470	57.030000	0.002841
72.846167	57.420000	0.002853
73.096184	57.620000	0.002861
73.359936	57.820000	0.002873
73.609202	58.020000	0.002872
73.859709	58.030000	0.002883
74.109228	58.420000	0.002892
74.359516	58.440000	0.002910
74.609574	58.820000	0.002922
74.859288	58.840000	0.002933
75.109297	59.220000	0.002943
75.374214	59.430000	0.002951
75.623319	59.540000	0.002953
75.901126	59.820000	0.002963
76.150361	59.840000	0.002973
76.400377	60.220000	0.002989
76.650638	60.230000	0.003001
76.900416	60.610000	0.003013
77.150628	60.630000	0.003016
77.400689	61.020000	0.003030
77.650442	61.030000	0.003043
77.900463	61.420000	0.003051
78.150493	61.430000	0.003058
78.400488	61.820000	0.003071
78.650505	61.830000	0.003073
78.900844	62.220000	0.003088
79.150539	62.340000	0.003101
79.400844	62.620000	0.003102
79.661553	62.640000	0.003110
79.911778	63.020000	0.003123
80.161830	63.140000	0.003138
80.411823	63.420000	0.003142
80.661607	63.540000	0.003151
80.911620	63.820000	0.003161
81.161882	64.020000	0.003182
81.411966	64.040000	0.003191
81.662123	64.430000	0.003202
81.925946	64.620000	0.003211
82.175733	64.640000	0.003210
82.425955	64.840000	0.003232
82.675730	65.230000	0.003240
82.946376	65.420000	0.003242
83.205675	65.430000	0.003251
83.454761	65.820000	0.003265
83.704790	65.940000	0.003276
83.957366	66.220000	0.003281
84.207053	66.250000	0.003291
84.457100	66.630000	0.003307
84.707103	66.640000	0.003322
84.956874	67.020000	0.003330
85.206876	67.220000	0.003341
85.470828	67.350000	0.003340
85.730092	67.630000	0.003350
85.980130	67.640000	0.003361
86.230802	68.030000	0.003376
86.480211	68.040000	0.003391
86.729962	68.420000	0.003401
86.980195	68.610000	0.003410
87.243436	68.740000	0.003412
87.502814	69.020000	0.003420
87.752022	69.040000	0.003430
88.002276	69.430000	0.003445
88.252325	69.430000	0.003460
88.502083	69.820000	0.003469
88.752090	70.020000	0.003481
89.016096	70.150000	0.003481
89.275724	70.420000	0.003490
89.525352	70.430000	0.003500
89.775400	70.820000	0.003518
90.025663	70.830000	0.003531
90.275163	71.210000	0.003540
90.525181	71.410000	0.003551
90.789121	71.540000	0.003549
91.048355	71.820000	0.003559
91.298450	71.840000	0.003571
91.548506	72.220000	0.003585
91.798257	72.240000	0.003600
92.048273	72.620000	0.003611
92.298290	72.820000	0.003621
92.561713	72.940000	0.003618
92.821058	73.220000	0.003628
93.070324	73.240000	0.003642
93.320550	73.620000	0.003654
93.570583	73.640000	0.003668
93.820372	74.020000	0.003679
94.070386	74.230000	0.003690
94.334628	74.350000	0.003688
94.593686	74.620000	0.003698
94.843647	74.640000	0.003709
95.093681	75.030000	0.003725
95.343726	75.050000	0.003739
95.593472	75.430000	0.003749
95.843492	75.620000	0.003758
96.107186	75.820000	0.003768
96.356512	76.030000	0.003767
96.607090	76.040000	0.003778
96.856532	76.430000	0.003788
97.106788	76.440000	0.003803
97.356834	76.820000	0.003817
97.606586	76.840000	0.003828
97.856614	77.220000	0.003837
98.121815	77.420000	0.003837
98.381324	77.440000	0.003847
98.630635	77.820000	0.003856
98.880950	77.840000	0.003876
99.130960	78.220000	0.003888
99.380847	78.240000	0.003898
99.630713	78.620000	0.003906
99.894730	78.820000	0.003906
100.153948	78.840000	0.003917
100.403732	79.220000	0.003931
100.653987	79.240000	0.003943
100.904038	79.630000	0.003958
101.153788	79.640000	0.003967
101.403808	80.020000	0.003978
101.667065	80.230000	0.003975
101.926695	80.240000	0.003988
102.175835	80.630000	0.003998
102.426088	80.640000	0.004015
102.676135	81.030000	0.004028
102.925887	81.040000	0.004037
103.175903	81.420000	0.004047
103.439849	81.620000	0.004057
103.708320	81.750000	0.004061
103.967767	82.030000	0.004067
104.216962	82.040000	0.004080
104.466978	82.430000	0.004090
104.719608	82.440000	0.004096
104.969310	82.830000	0.004107
105.219230	82.840000	0.004125
105.469310	83.240000	0.004136
105.719053	83.240000	0.004147
105.969115	83.630000	0.004157
106.232847	83.830000	0.004156
106.492032	83.840000	0.004166
106.741103	84.230000	0.004175
106.991430	84.250000	0.004191
107.241425	84.630000	0.004208
107.491297	84.650000	0.004218
107.741177	85.020000	0.004225
108.005612	85.230000	0.004227
108.264826	85.250000	0.004235
108.514230	85.630000	0.004245
108.764460	85.650000	0.004262
109.014503	86.020000	0.004277
109.264256	86.040000	0.004286
109.514265	86.420000	0.004296
109.778360	86.630000	0.004296
110.037763	86.640000	0.004304
110.287524	87.030000	0.004319
110.537544	87.040000	0.004331
110.787602	87.420000	0.004346
111.037359	87.440000	0.004355
111.287374	87.820000	0.004366
111.551097	88.020000	0.004364
111.810492	88.040000	0.004376
112.060767	88.420000	0.004387
112.310655	88.440000	0.004404
112.560551	88.820000	0.004416
112.810464	88.840000	0.004425
113.060478	89.230000	0.004435
113.323850	89.430000	0.004445
113.573490	89.450000	0.004445
113.823575	89.830000	0.004455
114.073519	89.850000	0.004468
114.323828	90.230000	0.004479
114.573805	90.250000	0.004497
114.823571	90.630000	0.004505
115.073587	90.830000	0.004516
115.338197	91.030000	0.004524
115.587607	91.230000	0.004525
115.839241	91.350000	0.004545
116.088633	91.640000	0.004545
116.338886	91.650000	0.004562
116.588943	92.030000	0.004574
116.838686	92.040000	0.004585
117.088709	92.430000	0.004595
117.353650	92.640000	0.004595
117.611991	92.650000	0.004603
117.861737	93.030000	0.004616
118.111774	93.040000	0.004629
118.362059	93.430000	0.004644
118.611793	93.450000	0.004654
118.861821	93.830000	0.004666
119.125354	94.040000	0.004665
119.383752	94.050000	0.004673
119.632841	94.430000	0.004687
119.883088	94.440000	0.004700
120.133134	94.830000	0.004715
120.383160	94.850000	0.004724
120.632907	95.220000	0.004731
120.897992	95.430000	0.004744
121.166584	95.550000	0.004743
121.425827	95.830000	0.004752
121.674952	95.950000	0.004766
121.934982	96.230000	0.004773
122.183997	96.250000	0.004786
122.434244	96.620000	0.004798
122.684018	96.650000	0.004812
122.934028	97.020000	0.004824
123.184051	97.230000	0.004835
123.450094	97.350000	0.004834
123.707750	97.630000	0.004843
123.957082	97.650000	0.004852
124.207340	98.030000	0.004872
124.457383	98.040000	0.004883
124.707139	98.440000	0.004892
124.957160	98.630000	0.004903
125.222812	98.750000	0.004903
125.480137	99.030000	0.004913
125.730186	99.050000	0.004923
125.980458	99.440000	0.004941
126.230475	99.450000	0.004953
126.480236	99.830000	0.004963
126.730253	100.030000	0.004972
