Time [s]	Current [A]	Voltage [V]	
0.721412	0.000000	0.000002
0.971021	1.210000	0.000099
1.221043	1.450000	0.000128
1.470949	2.010000	0.000142
1.720884	2.050000	0.000183
1.971195	2.810000	0.000227
2.220812	2.840000	0.000269
2.470824	3.610000	0.000303
2.733506	4.010000	0.000305
2.991670	4.060000	0.000338
3.240854	4.810000	0.000383
3.491143	4.840000	0.000417
3.741253	5.620000	0.000467
3.990980	5.640000	0.000509
4.240927	6.410000	0.000536
4.505912	6.810000	0.000577
4.755945	6.850000	0.000577
5.006282	7.620000	0.000612
5.255973	7.660000	0.000647
5.506006	8.420000	0.000703
5.756418	8.460000	0.000746
6.006175	9.220000	0.000782
6.256055	9.610000	0.000817
6.520178	10.010000	0.000853
6.770214	10.410000	0.000848
7.020318	10.460000	0.000888
7.270088	11.210000	0.000917
7.520546	11.260000	0.000970
7.770326	12.010000	0.001019
8.020156	12.060000	0.001058
8.270154	12.820000	0.001087
8.535923	13.220000	0.001090
8.793043	13.260000	0.001120
9.050887	14.010000	0.001173
9.304141	14.060000	0.001189
9.553215	14.810000	0.001240
9.803552	14.860000	0.001276
10.053257	15.620000	0.001326
10.303303	15.660000	0.001360
10.553290	16.420000	0.001394
10.817781	16.820000	0.001397
11.076045	16.860000	0.001429
11.325598	17.610000	0.001468
11.575539	17.660000	0.001524
11.825370	18.410000	0.001567
12.075427	18.460000	0.001603
12.325703	19.210000	0.001636
12.591517	19.610000	0.001642
12.848713	19.660000	0.001671
13.098419	20.420000	0.001705
13.348705	20.460000	0.001766
13.598460	21.210000	0.001807
13.848486	21.260000	0.001839
14.098562	22.010000	0.001875
14.363901	22.420000	0.001877
14.621751	22.470000	0.001914
14.871750	23.220000	0.001949
15.121821	23.260000	0.001996
15.371570	24.020000	0.002049
15.621868	24.060000	0.002080
15.871599	24.820000	0.002112
16.135699	25.220000	0.002113
16.394696	25.270000	0.002149
16.644927	26.010000	0.002198
16.895185	26.060000	0.002238
17.144671	26.810000	0.002285
17.394680	26.850000	0.002318
17.644704	27.620000	0.002355
17.908785	28.020000	0.002355
18.168029	28.060000	0.002387
18.417951	28.820000	0.002434
18.668048	28.860000	0.002475
18.917765	29.610000	0.002525
19.167781	29.660000	0.002561
19.417796	30.420000	0.002594
19.681498	30.820000	0.002592
19.939642	30.860000	0.002625
20.188824	31.630000	0.002674
20.439164	31.660000	0.002713
20.688864	32.420000	0.002759
20.938883	32.460000	0.002798
21.189028	33.220000	0.002829
21.454574	33.620000	0.002830
21.713054	33.660000	0.002870
21.962928	34.410000	0.002900
22.213189	34.700000	0.002951
22.463230	35.210000	0.002966
22.712971	35.250000	0.003009
22.963240	36.010000	0.003057
23.213013	36.300000	0.003098
23.463031	36.460000	0.003138
23.713043	37.220000	0.003172
23.978296	37.620000	0.003207
24.246770	38.020000	0.003240
24.496070	38.050000	0.003260
24.746098	38.820000	0.003310
24.996114	39.100000	0.003345
25.246128	39.620000	0.003365
25.496142	39.660000	0.003411
25.746458	40.420000	0.003447
25.996175	40.820000	0.003479
26.260657	41.220000	0.003512
26.510191	41.620000	0.003513
26.787552	41.660000	0.003551
27.037217	42.420000	0.003586
27.287491	42.450000	0.003629
27.537259	43.220000	0.003677
27.787561	43.240000	0.003719
28.037313	44.020000	0.003744
28.287525	44.040000	0.003785
28.537666	44.810000	0.003820
28.787685	44.850000	0.003837
29.037342	45.620000	0.003877
29.287659	45.650000	0.003924
29.537376	46.410000	0.003945
29.805314	46.820000	0.003959
30.064062	46.850000	0.003992
30.312408	47.620000	0.004027
30.562787	47.660000	0.004083
30.812446	48.420000	0.004122
31.062465	48.450000	0.004164
31.312478	49.220000	0.004188
31.577888	49.630000	0.004197
31.836395	49.660000	0.004232
32.085525	50.430000	0.004274
32.335552	50.460000	0.004315
32.585554	51.230000	0.004364
32.835570	51.250000	0.004403
33.085599	52.020000	0.004431
33.350379	52.420000	0.004437
33.608785	52.450000	0.004472
33.858607	53.220000	0.004505
34.108650	53.240000	0.004559
34.358647	54.020000	0.004602
34.608660	54.280000	0.004640
34.858678	54.820000	0.004659
35.108698	54.850000	0.004697
35.358706	55.620000	0.004743
35.608723	56.020000	0.004772
35.875006	56.240000	0.004778
36.133445	56.810000	0.004812
36.382751	56.840000	0.004846
36.633037	57.630000	0.004893
36.882861	57.640000	0.004949
37.132804	58.420000	0.004985
37.382827	58.820000	0.005010
37.648664	59.060000	0.005017
37.906146	59.620000	0.005053
38.155857	59.650000	0.005094
38.405904	60.420000	0.005133
38.656289	60.450000	0.005182
38.905915	61.220000	0.005223
39.155936	61.610000	0.005247
39.420416	62.020000	0.005290
39.691555	62.040000	0.005309
39.940967	62.820000	0.005347
40.190994	62.860000	0.005394
40.441003	63.620000	0.005398
40.691273	63.660000	0.005447
40.941094	64.430000	0.005496
41.191639	64.830000	0.005517
41.463410	65.230000	0.005545
41.713367	65.260000	0.005587
41.963089	66.030000	0.005634
42.213103	66.430000	0.005664
42.483552	66.830000	0.005679
42.749299	67.230000	0.005701
43.007867	67.260000	0.005735
43.257147	68.020000	0.005770
43.507427	68.060000	0.005819
43.757187	68.820000	0.005873
44.007199	68.860000	0.005905
44.257215	69.610000	0.005935
44.521783	70.030000	0.005940
44.780153	70.050000	0.005975
45.029260	70.810000	0.006015
45.279524	70.850000	0.006053
45.529564	71.620000	0.006105
45.779315	71.650000	0.006146
46.029317	72.420000	0.006176
46.294399	72.810000	0.006214
46.544342	73.220000	0.006242
46.804572	73.620000	0.006249
47.063912	73.660000	0.006283
47.313378	74.420000	0.006317
47.563670	74.450000	0.006366
47.812423	75.230000	0.006414
48.062435	75.250000	0.006453
48.312448	76.030000	0.006488
48.577298	76.420000	0.006488
48.836669	76.450000	0.006521
49.086480	77.220000	0.006564
49.336751	77.260000	0.006605
49.586520	78.020000	0.006657
49.836538	78.060000	0.006692
50.086552	78.830000	0.006723
50.349759	79.220000	0.006727
50.608286	79.260000	0.006759
50.857582	80.030000	0.006796
51.107922	80.060000	0.006842
51.357924	80.830000	0.006892
51.607650	80.860000	0.006931
51.857651	81.630000	0.006960
52.123427	82.020000	0.006967
52.380907	82.060000	0.007000
52.630683	82.830000	0.007033
52.880959	82.860000	0.007084
53.130722	83.630000	0.007129
53.380741	83.660000	0.007170
53.630757	84.430000	0.007199
53.895143	84.830000	0.007240
54.163532	85.090000	0.007240
54.421893	85.630000	0.007273
54.671803	85.670000	0.007307
54.922109	86.410000	0.007356
55.171845	86.450000	0.007411
55.421857	87.220000	0.007445
55.671873	87.620000	0.007472
55.936292	88.040000	0.007513
56.185890	88.050000	0.007530
56.435922	88.820000	0.007576
56.685918	88.860000	0.007583
56.936207	89.630000	0.007633
57.185955	89.660000	0.007679
57.435975	90.430000	0.007719
57.685995	90.830000	0.007746
57.951158	91.080000	0.007753
58.208550	91.630000	0.007786
58.458019	91.660000	0.007820
58.708280	92.430000	0.007869
58.958074	92.460000	0.007916
59.208073	93.230000	0.007958
59.458089	93.620000	0.007986
59.723154	93.880000	0.007992
59.982395	94.430000	0.008024
60.232412	94.470000	0.008061
60.482432	95.230000	0.008118
60.732157	95.270000	0.008156
60.982174	96.030000	0.008196
61.232191	96.440000	0.008227
61.495779	96.680000	0.008230
61.755139	97.240000	0.008265
62.004222	97.260000	0.008299
62.254555	98.030000	0.008347
62.504266	98.060000	0.008394
62.754281	98.820000	0.008435
63.004295	99.230000	0.008471
63.268298	99.640000	0.008504
63.518305	100.040000	0.008505
