Time [s]	Current [A]	Voltage [V]	
0.001531	0.000000	0.000004
0.500782	0.000000	0.000005
1.000812	0.000000	0.000005
1.500826	0.000000	0.000005
2.000867	0.000000	0.000130
2.500892	0.000000	0.000177
3.000939	0.000000	0.000222
3.500960	0.000000	0.000222
4.000977	0.000000	0.000270
4.501035	1.020000	0.000315
5.001038	1.130000	0.000408
5.501062	1.200000	0.000457
6.001122	1.360000	0.000502
6.501125	1.470000	0.000549
7.001161	1.470000	0.000593
7.500210	1.690000	0.000594
8.000212	1.810000	0.000684
8.500238	1.800000	0.000737
9.000281	1.910000	0.000737
9.500303	2.130000	0.000778
10.000360	2.250000	0.000871
10.500347	2.350000	0.000923
11.000392	2.470000	0.000965
11.500431	2.570000	0.001015
12.000430	2.660000	0.001057
12.500470	2.780000	0.001109
13.000516	2.800000	0.001152
13.500526	2.810000	0.001151
14.000591	3.020000	0.001201
14.500591	3.100000	0.001244
15.000638	3.170000	0.001296
15.500626	3.360000	0.001387
16.000682	3.480000	0.001430
16.500711	3.580000	0.001478
17.000762	3.590000	0.001478
17.500839	3.700000	0.001523
18.000806	3.870000	0.001571
18.500892	4.080000	0.001617
19.000920	4.140000	0.001709
19.500866	4.320000	0.001757
20.000990	4.480000	0.001803
20.675471	4.460000	0.001851
21.174968	4.580000	0.001850
21.674991	4.690000	0.001897
22.175023	4.700000	0.001945
22.675049	4.800000	0.001989
23.175101	5.020000	0.002037
23.675156	5.040000	0.002083
24.260485	5.370000	0.002131
24.760170	5.360000	0.002224
25.259209	5.470000	0.002223
25.759236	5.590000	0.002266
26.259325	5.810000	0.002318
26.890703	5.910000	0.002411
27.390336	6.030000	0.002453
27.890367	6.030000	0.002504
28.390384	6.050000	0.002504
28.890434	6.240000	0.002596
29.390448	6.250000	0.002597
29.890553	6.380000	0.002639
30.390513	6.650000	0.002733
30.890538	6.710000	0.002783
31.390555	6.810000	0.002824
31.890581	6.930000	0.002876
32.390614	7.070000	0.002876
32.890649	7.240000	0.002966
33.390678	7.250000	0.003012
33.890691	7.540000	0.003105
34.390724	7.660000	0.003154
34.890802	7.810000	0.003198
35.390784	7.920000	0.003246
35.890809	7.920000	0.003292
36.390835	8.030000	0.003340
36.890889	8.150000	0.003385
37.390889	8.260000	0.003432
37.890922	8.370000	0.003478
38.390939	8.490000	0.003527
38.890964	8.670000	0.003571
39.391079	8.700000	0.003620
40.020343	9.020000	0.003661
40.520057	9.110000	0.003755
41.020082	9.240000	0.003806
41.520127	9.240000	0.003849
42.020146	9.470000	0.003847
42.519173	9.590000	0.003942
43.019232	9.820000	0.003992
43.519232	9.900000	0.004085
44.019278	9.900000	0.004128
44.519295	10.030000	0.004128
45.019317	10.130000	0.004178
45.519342	10.360000	0.004220
46.019373	10.350000	0.004314
46.519406	10.440000	0.004314
47.020237	10.630000	0.004365
47.519464	10.770000	0.004456
48.019491	10.810000	0.004501
48.519525	10.920000	0.004549
49.019595	10.910000	0.004549
49.519601	11.030000	0.004593
50.019613	11.300000	0.004642
50.519648	11.380000	0.004737
51.019672	11.480000	0.004780
51.519693	11.660000	0.004830
52.019727	11.700000	0.004874
52.519784	11.700000	0.004874
53.019836	11.870000	0.004922
53.634972	12.140000	0.004967
54.134837	12.140000	0.005060
54.634871	12.250000	0.005060
55.134899	12.350000	0.005109
55.634921	12.480000	0.005151
56.134953	12.580000	0.005201
56.634983	12.700000	0.005243
57.135013	12.800000	0.005295
57.635047	12.920000	0.005337
58.135093	12.930000	0.005388
58.635109	13.020000	0.005389
59.135131	13.140000	0.005429
59.635147	13.300000	0.005482
60.134176	13.360000	0.005575
60.634217	13.460000	0.005575
61.134239	13.580000	0.005618
61.634286	13.690000	0.005668
62.134295	13.800000	0.005710
62.634326	13.910000	0.005761
63.134638	14.040000	0.005802
63.634385	14.260000	0.005855
64.134755	14.360000	0.005945
64.634472	14.460000	0.005989
65.134465	14.580000	0.006032
65.634499	14.690000	0.006083
66.134526	14.800000	0.006132
66.634546	15.030000	0.006176
67.134580	15.140000	0.006270
67.634621	15.210000	0.006319
68.134640	15.360000	0.006363
68.634663	15.470000	0.006411
69.134697	15.590000	0.006457
69.634742	15.700000	0.006505
70.134792	15.810000	0.006549
70.634790	15.910000	0.006598
71.134809	16.030000	0.006640
71.634877	16.140000	0.006692
72.134867	16.250000	0.006734
72.634936	16.350000	0.006784
73.223076	16.430000	0.006828
73.722962	16.470000	0.006877
74.222989	16.580000	0.006878
74.723020	16.660000	0.006919
75.223050	16.760000	0.006971
75.723092	16.810000	0.007013
76.223113	17.020000	0.007065
76.723139	17.140000	0.007106
77.223190	17.140000	0.007158
77.722191	17.240000	0.007157
78.222210	17.460000	0.007199
78.722310	17.590000	0.007293
79.423457	17.730000	0.007343
79.923329	17.920000	0.007434
80.423343	18.030000	0.007480
80.923374	18.140000	0.007528
81.423406	18.210000	0.007573
81.923431	18.360000	0.007621
82.423469	18.470000	0.007667
82.923512	18.580000	0.007715
83.423525	18.580000	0.007759
83.923555	18.800000	0.007760
84.423576	18.800000	0.007853
84.923593	19.020000	0.007853
85.423632	19.140000	0.007947
85.923668	19.210000	0.007995
86.423688	19.330000	0.008039
86.923720	19.360000	0.008088
87.423738	19.380000	0.008088
87.923786	19.580000	0.008181
88.423826	19.580000	0.008181
88.923838	19.690000	0.008223
89.423867	19.810000	0.008275
89.923894	19.910000	0.008317
90.423927	20.040000	0.008368
90.923943	20.280000	0.008410
91.423976	20.360000	0.008504
91.924020	20.460000	0.008554
92.424035	20.690000	0.008554
92.924065	20.790000	0.008648
93.424084	20.910000	0.008690
93.924289	21.010000	0.008741
94.424159	21.090000	0.008782
94.923183	21.230000	0.008833
95.423212	21.310000	0.008876
95.923243	21.450000	0.008923
96.423261	21.680000	0.008969
96.923283	21.790000	0.009063
97.423331	21.790000	0.009111
97.923358	21.900000	0.009111
98.423523	22.010000	0.009155
98.923484	22.120000	0.009203
99.553504	22.130000	0.009248
100.053488	22.420000	0.009341
100.553524	22.470000	0.009389
101.053551	22.560000	0.009434
101.553576	22.590000	0.009434
102.053605	22.800000	0.009527
102.553636	22.960000	0.009575
103.053712	23.010000	0.009617
103.553695	23.120000	0.009670
104.053725	23.200000	0.009668
104.553753	23.230000	0.009711
105.053779	23.400000	0.009761
105.553809	23.520000	0.009803
106.053843	23.780000	0.009855
106.553864	23.890000	0.009949
107.053894	23.890000	0.009990
107.553921	24.010000	0.010042
108.053954	24.120000	0.010084
108.553979	24.240000	0.010135
109.054007	24.340000	0.010177
109.554039	24.440000	0.010228
110.054058	24.480000	0.010229
110.554093	24.730000	0.010321
111.054126	24.780000	0.010364
111.554214	24.970000	0.010412
112.054177	25.080000	0.010458
112.553202	25.110000	0.010506
113.053238	25.210000	0.010552
113.553269	25.290000	0.010550
114.053296	25.340000	0.010600
114.553328	25.560000	0.010645
115.053350	25.660000	0.010693
115.553399	25.670000	0.010739
116.053418	25.790000	0.010787
116.553441	25.900000	0.010833
117.053476	26.030000	0.010882
117.553488	26.230000	0.010974
118.053526	26.330000	0.011020
118.553544	26.470000	0.011019
119.053584	26.530000	0.011111
119.553612	26.660000	0.011111
120.053648	26.740000	0.011161
120.553670	26.850000	0.011204
121.053697	26.950000	0.011255
121.553728	27.060000	0.011298
122.053814	27.110000	0.011349
122.553785	27.340000	0.011348
123.053816	27.340000	0.011443
123.553841	27.340000	0.011443
124.053878	27.510000	0.011486
124.553898	27.570000	0.011536
125.054014	27.670000	0.011578
125.553957	27.790000	0.011630
126.053988	27.950000	0.011672
126.554045	28.070000	0.011722
127.054040	28.110000	0.011764
127.554136	28.400000	0.011859
128.054143	28.440000	0.011906
128.714727	28.600000	0.011952
129.214172	28.720000	0.011995
129.713200	28.860000	0.012045
130.213227	28.980000	0.012088
130.713251	29.100000	0.012138
131.213344	29.160000	0.012186
131.713312	29.200000	0.012233
132.213362	29.420000	0.012233
132.713368	29.540000	0.012326
133.213402	29.760000	0.012373
133.713425	29.760000	0.012468
134.213450	29.990000	0.012467
134.713498	30.090000	0.012560
135.213512	30.090000	0.012601
135.713534	30.210000	0.012601
136.213576	30.310000	0.012654
136.713591	30.520000	0.012697
137.213625	30.660000	0.012789
137.713647	30.750000	0.012841
138.213672	30.870000	0.012882
138.713707	30.970000	0.012933
139.213735	31.190000	0.012975
139.713766	31.190000	0.013068
140.213816	31.190000	0.013069
140.713828	31.370000	0.013119
141.213848	31.440000	0.013161
141.713873	31.650000	0.013255
142.213916	32.010000	0.013347
142.713939	32.180000	0.013442
143.213997	32.250000	0.013490
143.714026	32.360000	0.013535
144.368259	32.490000	0.013583
144.868100	32.660000	0.013629
145.368130	32.720000	0.013722
145.868129	32.740000	0.013722
146.368150	32.850000	0.013770
146.868186	32.960000	0.013770
147.367203	33.040000	0.013816
147.867234	33.100000	0.013866
148.367266	33.310000	0.013958
148.867400	33.490000	0.014004
149.367361	33.520000	0.014053
150.008391	33.740000	0.014096
150.508388	33.810000	0.014146
151.008416	33.920000	0.014189
151.508440	34.020000	0.014241
152.008474	34.140000	0.014283
152.508542	34.260000	0.014334
153.008529	34.400000	0.014377
153.508559	34.510000	0.014429
154.008585	34.620000	0.014471
154.508619	34.730000	0.014521
155.008666	34.850000	0.014564
155.508665	34.950000	0.014615
156.008700	35.070000	0.014657
156.508745	35.170000	0.014708
157.008760	35.290000	0.014750
157.508818	35.390000	0.014802
158.008814	35.510000	0.014845
158.508842	35.610000	0.014893
159.008888	35.620000	0.014937
159.508933	35.840000	0.014986
160.008965	35.950000	0.015033
160.509009	36.060000	0.015081
161.008998	36.140000	0.015127
161.509029	36.190000	0.015175
162.009048	36.350000	0.015221
162.509120	36.470000	0.015270
163.009107	36.490000	0.015314
163.509144	36.570000	0.015313
164.009298	36.680000	0.015363
164.509220	36.790000	0.015409
165.008226	36.950000	0.015457
165.508276	37.030000	0.015501
166.008292	37.110000	0.015550
166.508329	37.240000	0.015593
167.008346	37.380000	0.015645
167.508353	37.460000	0.015687
168.008383	37.650000	0.015738
168.508427	37.710000	0.015833
169.008448	37.940000	0.015833
169.508486	38.040000	0.015925
170.008524	38.160000	0.015968
170.508530	38.270000	0.016020
171.008559	38.380000	0.016063
171.508595	38.480000	0.016114
172.008629	38.710000	0.016155
172.644146	38.830000	0.016252
173.143684	38.930000	0.016301
173.643712	38.920000	0.016344
174.143736	38.950000	0.016343
174.643762	39.170000	0.016437
175.143820	39.260000	0.016485
175.643827	39.270000	0.016485
176.143857	39.440000	0.016531
176.643903	39.490000	0.016579
177.143976	39.700000	0.016673
177.643932	39.710000	0.016673
178.143977	39.930000	0.016718
178.644000	40.000000	0.016767
179.144044	40.130000	0.016814
179.644052	40.290000	0.016862
180.144090	40.450000	0.016956
180.644133	40.570000	0.016996
181.144150	40.020000	0.016804
181.644172	40.030000	0.016802
182.143206	40.020000	0.016802
182.643229	40.020000	0.016801
183.143257	40.020000	0.016802
183.643283	40.020000	0.016804
184.143310	40.010000	0.016801
184.643358	40.020000	0.016802
185.143398	40.010000	0.016801
185.643394	40.020000	0.016804
186.143425	40.020000	0.016801
186.643453	40.020000	0.016803
187.143479	40.020000	0.016802
187.643522	40.020000	0.016803
188.143535	40.010000	0.016804
188.643586	40.010000	0.016801
189.143600	40.020000	0.016803
189.643626	40.020000	0.016802
190.143655	40.020000	0.016800
190.643681	40.020000	0.016802
191.143708	40.020000	0.016803
