Time [s]	Current [A]	Voltage [V]	
0.781677	0.000000	0.000003
0.995567	0.000000	0.000002
1.210591	0.000000	0.000034
1.437766	1.010000	0.000034
1.696503	1.030000	0.000042
1.937939	1.410000	0.000050
2.180902	1.430000	0.000058
2.421279	1.810000	0.000066
2.663230	1.930000	0.000081
2.905051	2.210000	0.000081
3.146784	2.330000	0.000099
3.389623	2.600000	0.000098
3.629719	2.610000	0.000106
3.871471	3.010000	0.000115
4.098390	3.120000	0.000122
4.356480	3.410000	0.000132
4.598005	3.540000	0.000148
4.839725	3.810000	0.000146
5.080240	3.940000	0.000165
5.322263	4.220000	0.000165
5.564352	4.230000	0.000171
5.805488	4.610000	0.000179
6.046911	4.640000	0.000188
6.288857	5.010000	0.000206
6.530613	5.030000	0.000205
6.772352	5.410000	0.000221
7.015309	5.430000	0.000222
7.255494	5.810000	0.000229
7.498510	5.830000	0.000237
7.738862	6.210000	0.000247
7.981146	6.330000	0.000262
8.222695	6.610000	0.000262
8.464449	6.730000	0.000278
8.706003	7.010000	0.000278
8.932499	7.220000	0.000295
9.173266	7.410000	0.000303
9.414974	7.540000	0.000302
9.673000	7.820000	0.000309
9.914626	7.950000	0.000326
10.156601	8.220000	0.000329
10.398167	8.340000	0.000349
10.641250	8.600000	0.000339
10.881501	8.630000	0.000350
11.123110	9.010000	0.000363
11.365896	9.040000	0.000365
11.607739	9.410000	0.000390
11.849489	9.430000	0.000386
12.090131	9.810000	0.000405
12.332013	9.830000	0.000405
12.574624	10.210000	0.000410
12.815613	10.230000	0.000421
13.057233	10.620000	0.000422
13.299286	10.750000	0.000444
13.540880	11.010000	0.000441
13.782719	11.150000	0.000459
14.025743	11.410000	0.000459
14.266127	11.440000	0.000464
14.509050	11.810000	0.000477
14.749374	11.840000	0.000479
14.990901	12.210000	0.000493
15.232875	12.350000	0.000513
15.474767	12.620000	0.000510
15.716361	12.740000	0.000527
15.959362	13.010000	0.000525
16.199855	13.040000	0.000531
16.442769	13.420000	0.000542
16.682970	13.440000	0.000547
16.925229	13.820000	0.000567
17.166845	13.840000	0.000564
17.408372	14.220000	0.000581
17.650234	14.240000	0.000584
17.892854	14.620000	0.000586
18.133501	14.640000	0.000598
18.376374	15.020000	0.000605
18.610743	15.150000	0.000613
18.885505	15.410000	0.000619
19.127001	15.440000	0.000624
19.368917	15.820000	0.000644
19.610987	15.840000	0.000647
19.852496	16.210000	0.000663
20.095380	16.240000	0.000662
20.335639	16.610000	0.000677
20.578624	16.640000	0.000677
20.819089	17.020000	0.000684
21.053655	17.140000	0.000696
21.329363	17.410000	0.000703
21.572166	17.430000	0.000713
21.813715	17.820000	0.000733
22.055785	17.840000	0.000726
22.297224	18.220000	0.000747
22.537933	18.240000	0.000746
22.780497	18.610000	0.000754
23.021052	18.640000	0.000760
23.262746	19.020000	0.000765
23.521155	19.140000	0.000779
23.774216	19.410000	0.000780
24.014523	19.430000	0.000798
24.256608	19.810000	0.000804
24.498402	19.820000	0.000809
24.739850	20.210000	0.000829
24.982788	20.230000	0.000830
25.223092	20.610000	0.000837
25.464975	20.630000	0.000840
25.691496	21.010000	0.000851
25.949625	21.030000	0.000859
26.191257	21.410000	0.000876
26.432996	21.430000	0.000875
26.673621	21.810000	0.000889
26.915254	21.830000	0.000891
27.157988	22.210000	0.000897
27.398629	22.230000	0.000907
27.640376	22.620000	0.000915
27.882380	22.750000	0.000936
28.124121	23.020000	0.000932
28.365845	23.140000	0.000949
28.608883	23.420000	0.000949
28.848969	23.440000	0.000956
29.075812	23.820000	0.000965
29.332978	23.840000	0.000972
29.574669	24.220000	0.000989
29.816631	24.240000	0.000987
30.058138	24.620000	0.001008
30.299868	24.640000	0.001006
30.542539	25.020000	0.001013
30.782746	25.050000	0.001024
31.025888	25.420000	0.001029
31.284208	25.550000	0.001040
31.535926	25.810000	0.001047
31.777123	25.830000	0.001053
32.019283	26.210000	0.001071
32.260958	26.240000	0.001069
32.502731	26.610000	0.001088
32.745627	26.630000	0.001085
32.985902	27.010000	0.001096
33.228746	27.040000	0.001104
33.469244	27.420000	0.001111
33.711386	27.550000	0.001131
33.953252	27.820000	0.001127
34.194763	27.950000	0.001144
34.436492	28.220000	0.001145
34.679030	28.240000	0.001153
34.919484	28.620000	0.001161
35.146243	28.740000	0.001171
35.403211	29.020000	0.001175
35.645102	29.140000	0.001196
35.886731	29.420000	0.001194
36.128561	29.550000	0.001210
36.370246	29.820000	0.001210
36.613192	29.840000	0.001220
36.853626	30.220000	0.001224
37.096389	30.240000	0.001234
37.338144	30.620000	0.001256
37.579837	30.640000	0.001253
37.821490	31.020000	0.001265
38.062214	31.040000	0.001265
38.303622	31.420000	0.001275
38.546480	31.450000	0.001285
38.786977	31.820000	0.001290
39.029914	31.840000	0.001299
39.272365	32.230000	0.001319
39.514095	32.360000	0.001315
39.766144	32.630000	0.001330
40.024244	32.640000	0.001331
40.265719	33.020000	0.001349
40.506614	33.040000	0.001349
40.748022	33.420000	0.001355
40.990870	33.440000	0.001368
41.231346	33.820000	0.001373
41.457595	33.950000	0.001383
41.716054	34.220000	0.001391
41.958090	34.340000	0.001408
42.199882	34.610000	0.001404
42.440372	34.740000	0.001420
42.682402	35.010000	0.001418
42.924474	35.030000	0.001434
43.165286	35.420000	0.001440
43.407114	35.540000	0.001461
43.649067	35.820000	0.001457
43.891759	35.940000	0.001472
44.132349	36.220000	0.001472
44.373965	36.230000	0.001480
44.616721	36.610000	0.001490
44.857247	36.630000	0.001496
45.085616	36.830000	0.001514
45.313580	37.220000	0.001512
45.555347	37.240000	0.001521
45.798030	37.620000	0.001529
46.038630	37.630000	0.001541
46.281598	38.020000	0.001544
46.523381	38.140000	0.001567
46.764999	38.410000	0.001561
47.018357	38.620000	0.001575
47.246495	38.640000	0.001578
47.489472	39.020000	0.001586
47.730038	39.030000	0.001592
47.972637	39.420000	0.001602
48.213386	39.430000	0.001611
48.455249	39.810000	0.001626
48.697254	39.830000	0.001624
48.938753	40.220000	0.001643
49.181939	40.240000	0.001641
49.422377	40.610000	0.001655
49.664725	40.640000	0.001656
49.905380	41.020000	0.001667
50.147352	41.150000	0.001684
50.389254	41.410000	0.001685
50.630972	41.540000	0.001704
50.872611	41.810000	0.001700
51.115123	41.840000	0.001710
51.355736	42.220000	0.001719
51.598501	42.240000	0.001725
51.838941	42.620000	0.001734
52.080773	42.730000	0.001749
52.322740	43.010000	0.001749
52.564342	43.130000	0.001766
52.807535	43.420000	0.001765
53.047507	43.430000	0.001774
53.273889	43.810000	0.001788
53.541492	43.930000	0.001791
53.799478	44.220000	0.001797
54.040893	44.230000	0.001806
54.283646	44.620000	0.001814
54.525741	44.730000	0.001832
54.766510	45.020000	0.001831
55.008294	45.130000	0.001847
55.251187	45.420000	0.001847
55.491374	45.430000	0.001855
55.733008	45.810000	0.001864
55.975741	45.830000	0.001872
56.217763	46.220000	0.001890
56.459615	46.230000	0.001887
56.699981	46.610000	0.001904
56.942164	46.630000	0.001905
57.184490	47.020000	0.001914
57.424877	47.030000	0.001921
57.666736	47.420000	0.001929
57.895150	47.620000	0.001943
58.124110	47.640000	0.001944
58.364632	48.020000	0.001952
58.606598	48.040000	0.001961
58.832768	48.420000	0.001971
59.089979	48.440000	0.001979
59.331615	48.820000	0.001995
59.573597	48.840000	0.001995
59.816520	49.220000	0.002012
60.057241	49.240000	0.002011
60.298775	49.620000	0.002019
60.541495	49.640000	0.002027
60.781806	50.030000	0.002036
61.023877	50.150000	0.002053
61.265826	50.430000	0.002052
61.507499	50.540000	0.002069
61.750252	50.820000	0.002068
61.990850	50.830000	0.002076
62.232362	51.220000	0.002084
62.475254	51.240000	0.002093
62.702508	51.440000	0.002106
62.930388	51.810000	0.002110
63.172132	51.830000	0.002118
63.398470	52.220000	0.002125
63.655845	52.230000	0.002134
63.881742	52.620000	0.002145
64.140229	52.630000	0.002150
64.382025	53.020000	0.002168
64.623861	53.140000	0.002167
64.876994	53.230000	0.002179
65.105124	53.620000	0.002183
65.348158	53.630000	0.002191
65.588626	54.010000	0.002199
65.831646	54.140000	0.002207
66.082296	54.420000	0.002216
66.340912	54.430000	0.002223
66.582404	54.820000	0.002239
66.824304	54.830000	0.002241
67.066028	55.220000	0.002255
67.309021	55.230000	0.002256
67.549103	55.620000	0.002265
67.792254	55.630000	0.002273
68.032544	56.010000	0.002281
68.260865	56.220000	0.002292
68.489873	56.230000	0.002297
68.730598	56.620000	0.002307
68.973434	56.630000	0.002313
69.213876	57.020000	0.002322
69.455473	57.030000	0.002330
69.697607	57.420000	0.002347
69.939384	57.540000	0.002346
70.193983	57.630000	0.002359
70.421913	58.020000	0.002362
70.664739	58.040000	0.002371
70.905389	58.420000	0.002378
71.147132	58.430000	0.002388
71.389738	58.820000	0.002395
71.631747	58.930000	0.002413
71.872490	59.220000	0.002412
72.114242	59.330000	0.002428
72.357246	59.620000	0.002428
72.597513	59.630000	0.002436
72.839200	60.030000	0.002444
73.082004	60.040000	0.002453
73.324150	60.420000	0.002470
73.565637	60.430000	0.002468
73.806102	60.820000	0.002485
74.048263	60.830000	0.002485
74.290628	61.220000	0.002493
74.531097	61.230000	0.002501
74.772750	61.610000	0.002510
75.001276	61.820000	0.002522
75.230243	61.830000	0.002526
75.470743	62.220000	0.002534
75.712499	62.240000	0.002543
75.955386	62.620000	0.002551
76.195886	62.640000	0.002559
76.437864	63.020000	0.002576
76.679856	63.040000	0.002574
76.922490	63.420000	0.002592
77.163415	63.430000	0.002591
77.404526	63.820000	0.002600
77.647225	63.840000	0.002608
77.887631	64.220000	0.002615
78.129602	64.340000	0.002633
78.371673	64.630000	0.002632
78.613366	64.740000	0.002649
78.856499	65.030000	0.002649
79.096490	65.040000	0.002658
79.338152	65.430000	0.002667
79.580978	65.440000	0.002673
79.808247	65.640000	0.002686
80.035980	66.030000	0.002689
80.277790	66.040000	0.002698
80.520481	66.420000	0.002706
80.761128	66.440000	0.002714
81.004146	66.830000	0.002723
81.246128	66.940000	0.002739
81.487725	67.230000	0.002739
81.729481	67.350000	0.002755
81.970246	67.630000	0.002755
82.211730	67.640000	0.002764
82.454266	68.030000	0.002772
82.694974	68.040000	0.002779
82.936784	68.430000	0.002797
83.178622	68.440000	0.002795
83.420436	68.820000	0.002813
83.663251	68.840000	0.002812
83.903523	69.220000	0.002820
84.145377	69.240000	0.002829
84.387862	69.630000	0.002837
84.628649	69.630000	0.002844
84.870606	70.020000	0.002861
85.112529	70.030000	0.002860
85.355546	70.420000	0.002878
85.596263	70.430000	0.002878
85.837501	70.820000	0.002885
86.080364	70.830000	0.002895
86.320886	71.220000	0.002903
86.562990	71.340000	0.002919
86.804599	71.620000	0.002918
87.046391	71.740000	0.002935
87.289521	72.020000	0.002934
87.529486	72.040000	0.002943
87.771137	72.420000	0.002951
88.014032	72.440000	0.002960
88.241352	72.640000	0.002973
88.452690	73.020000	0.002975
88.711254	73.030000	0.002983
88.952457	73.420000	0.002992
89.195238	73.440000	0.003000
89.436123	73.820000	0.003007
89.677982	73.940000	0.003025
89.919507	74.230000	0.003024
90.162352	74.340000	0.003042
90.403181	74.620000	0.003040
90.644499	74.630000	0.003049
90.887397	75.030000	0.003056
91.128008	75.030000	0.003065
91.369786	75.430000	0.003082
91.611627	75.440000	0.003082
91.853351	75.830000	0.003099
92.096392	75.840000	0.003098
92.336599	76.220000	0.003106
92.578311	76.230000	0.003114
92.821274	76.620000	0.003123
93.048503	76.820000	0.003135
93.276132	76.840000	0.003139
93.518297	77.220000	0.003154
93.759976	77.240000	0.003155
94.002386	77.620000	0.003164
94.242979	77.640000	0.003171
94.485030	78.020000	0.003188
94.726902	78.030000	0.003188
94.969664	78.420000	0.003206
95.210386	78.440000	0.003205
95.451833	78.820000	0.003212
95.694628	78.840000	0.003221
95.935149	79.220000	0.003229
96.163509	79.430000	0.003241
96.391272	79.430000	0.003245
96.633045	79.830000	0.003254
96.875947	79.850000	0.003261
97.116252	80.230000	0.003271
97.359021	80.240000	0.003277
97.601013	80.630000	0.003294
97.842975	80.640000	0.003294
98.083387	81.020000	0.003310
98.325259	81.030000	0.003310
98.566544	81.420000	0.003319
98.809389	81.440000	0.003326
99.049926	81.830000	0.003335
99.309507	81.950000	0.003348
99.561576	82.230000	0.003351
99.801629	82.240000	0.003360
100.043752	82.630000	0.003376
100.285621	82.640000	0.003375
100.527132	83.030000	0.003393
100.770260	83.040000	0.003393
101.010673	83.430000	0.003401
101.236986	83.550000	0.003409
101.494542	83.830000	0.003417
101.735858	83.950000	0.003434
101.977837	84.230000	0.003434
102.219401	84.350000	0.003451
102.461238	84.630000	0.003448
102.703736	84.650000	0.003457
102.944370	85.030000	0.003466
103.187142	85.050000	0.003474
103.414287	85.250000	0.003487
103.626886	85.630000	0.003491
103.885237	85.640000	0.003499
104.125521	86.020000	0.003506
104.368238	86.040000	0.003514
104.608872	86.430000	0.003523
104.850895	86.540000	0.003540
105.092654	86.830000	0.003539
105.334510	86.940000	0.003557
105.577396	87.230000	0.003555
105.817506	87.240000	0.003564
106.060396	87.620000	0.003572
106.300861	87.640000	0.003580
106.542886	88.030000	0.003598
106.784727	88.040000	0.003597
107.026677	88.420000	0.003614
107.268152	88.440000	0.003613
107.510607	88.820000	0.003622
107.751241	88.840000	0.003629
107.993929	89.230000	0.003638
108.234640	89.250000	0.003646
108.476766	89.630000	0.003663
108.718392	89.640000	0.003662
108.960106	90.030000	0.003680
109.202872	90.050000	0.003678
109.443268	90.430000	0.003687
109.686147	90.440000	0.003694
109.926767	90.830000	0.003703
110.168665	90.950000	0.003720
110.410363	91.220000	0.003719
110.651937	91.350000	0.003737
110.893607	91.630000	0.003736
111.136271	91.650000	0.003744
111.376874	92.030000	0.003754
111.619915	92.040000	0.003760
111.846887	92.250000	0.003774
112.059510	92.630000	0.003779
112.317986	92.640000	0.003785
112.558137	93.030000	0.003794
112.801159	93.050000	0.003802
113.041376	93.430000	0.003810
113.283392	93.550000	0.003828
113.525278	93.830000	0.003827
113.766760	93.950000	0.003843
114.008681	94.230000	0.003843
114.251101	94.250000	0.003852
114.491626	94.630000	0.003860
114.734543	94.650000	0.003868
114.961932	94.850000	0.003883
115.174418	95.230000	0.003885
115.432861	95.250000	0.003891
115.673020	95.620000	0.003901
115.915870	95.650000	0.003908
116.156387	96.030000	0.003916
116.398407	96.150000	0.003934
116.639947	96.430000	0.003933
116.881736	96.550000	0.003949
117.124939	96.830000	0.003949
117.365244	96.840000	0.003957
117.608047	97.220000	0.003967
117.848902	97.240000	0.003974
118.090650	97.640000	0.003991
118.332359	97.640000	0.003990
118.573988	98.030000	0.004007
118.815759	98.050000	0.004007
119.041910	98.420000	0.004023
119.338487	98.640000	0.004029
119.605331	98.830000	0.004031
119.863755	98.840000	0.004040
120.105385	99.230000	0.004057
120.346741	99.250000	0.004055
120.587762	99.630000	0.004072
120.830775	99.650000	0.004073
121.070863	100.030000	0.004080
