Time [s]	Current [A]	Voltage [V]	
0.851965	0.000000	0.000001
1.081342	1.190000	0.000047
1.319483	1.230000	0.000062
1.537541	2.010000	0.000083
1.779069	2.040000	0.000083
2.020691	2.820000	0.000113
2.261356	2.840000	0.000116
2.503012	3.610000	0.000152
2.745175	3.660000	0.000151
2.987382	4.410000	0.000168
3.228221	4.440000	0.000184
3.470261	5.210000	0.000217
3.712084	5.240000	0.000218
3.953720	6.010000	0.000250
4.196470	6.050000	0.000251
4.436735	6.810000	0.000267
4.678179	6.850000	0.000284
4.905110	7.620000	0.000314
5.163441	7.660000	0.000313
5.404829	8.420000	0.000357
5.647172	8.460000	0.000356
5.886919	9.210000	0.000388
6.128848	9.260000	0.000386
6.371553	10.010000	0.000403
6.612059	10.040000	0.000416
6.870567	10.820000	0.000443
7.123237	10.860000	0.000450
7.365424	11.610000	0.000468
7.607478	11.890000	0.000511
7.849317	12.410000	0.000506
8.089850	12.690000	0.000537
8.331695	13.220000	0.000536
8.574363	13.270000	0.000554
8.814709	14.020000	0.000568
9.056380	14.060000	0.000583
9.298601	14.820000	0.000622
9.540563	14.860000	0.000616
9.782061	15.620000	0.000657
10.025143	15.670000	0.000652
10.266695	16.410000	0.000685
10.507395	16.460000	0.000685
10.749799	17.210000	0.000707
10.990778	17.250000	0.000723
11.232381	18.020000	0.000759
11.474081	18.060000	0.000760
11.715674	18.820000	0.000794
11.958598	18.860000	0.000781
12.198811	19.610000	0.000806
12.441697	19.660000	0.000817
12.682327	20.410000	0.000839
12.924456	20.680000	0.000876
13.166060	21.210000	0.000873
13.407678	21.480000	0.000908
13.649293	22.020000	0.000907
13.892051	22.070000	0.000920
14.132593	22.820000	0.000942
14.375311	22.860000	0.000957
14.633719	23.620000	0.000983
14.885007	23.660000	0.000990
15.126251	24.420000	0.001007
15.368059	24.690000	0.001043
15.609723	25.220000	0.001040
15.851596	25.490000	0.001076
16.094272	26.010000	0.001077
16.335188	26.060000	0.001091
16.578119	26.810000	0.001109
16.818408	26.850000	0.001125
17.060322	27.610000	0.001142
17.302113	27.890000	0.001178
17.543899	28.420000	0.001175
17.785447	28.690000	0.001212
18.028197	29.220000	0.001212
18.268810	29.260000	0.001225
18.511648	30.020000	0.001240
18.752060	30.060000	0.001260
18.994207	30.820000	0.001294
19.236343	30.870000	0.001294
19.477686	31.620000	0.001328
19.719685	31.670000	0.001326
19.946172	32.420000	0.001349
20.203454	32.460000	0.001362
20.445955	33.220000	0.001377
20.680691	33.490000	0.001394
20.955322	34.020000	0.001410
21.196694	34.060000	0.001427
21.438542	34.820000	0.001466
21.680304	34.850000	0.001458
21.921965	35.620000	0.001498
22.164973	35.650000	0.001493
22.405434	36.410000	0.001508
22.648115	36.460000	0.001523
22.888542	37.210000	0.001544
23.116991	37.620000	0.001572
23.328588	37.890000	0.001583
23.586972	38.420000	0.001594
23.829468	38.460000	0.001612
24.069832	39.220000	0.001626
24.311691	39.260000	0.001640
24.553644	40.020000	0.001682
24.795319	40.060000	0.001672
25.038393	40.820000	0.001710
25.280185	40.860000	0.001708
25.520367	41.620000	0.001723
25.763341	41.660000	0.001741
26.003770	42.420000	0.001758
26.245744	42.660000	0.001792
26.487460	43.220000	0.001792
26.729181	43.450000	0.001825
26.972196	44.020000	0.001825
27.212681	44.040000	0.001842
27.455187	44.820000	0.001858
27.695944	44.850000	0.001875
27.924200	45.250000	0.001900
28.153219	46.020000	0.001908
28.393800	46.050000	0.001926
28.636707	46.820000	0.001943
28.877441	46.850000	0.001959
29.118827	47.620000	0.001976
29.371923	47.880000	0.002000
29.629459	48.420000	0.002009
29.857169	48.820000	0.002037
30.068764	49.080000	0.002045
30.327080	49.630000	0.002060
30.569963	49.660000	0.002076
30.810296	50.420000	0.002094
31.052950	50.460000	0.002110
31.294787	51.230000	0.002144
31.537040	51.480000	0.002144
31.790101	51.650000	0.002173
32.018058	52.420000	0.002177
32.261232	52.450000	0.002194
32.501560	53.220000	0.002211
32.744294	53.250000	0.002227
32.984795	54.020000	0.002244
33.226989	54.240000	0.002278
33.468677	54.810000	0.002278
33.710444	55.050000	0.002310
33.953430	55.610000	0.002311
34.193702	55.650000	0.002327
34.436327	56.410000	0.002344
34.677077	56.440000	0.002361
34.918938	57.220000	0.002393
35.160976	57.240000	0.002394
35.402414	58.020000	0.002427
35.644425	58.040000	0.002428
35.886784	58.820000	0.002444
36.127334	58.840000	0.002461
36.370159	59.620000	0.002478
36.610735	59.650000	0.002495
36.852708	60.420000	0.002528
37.094530	60.450000	0.002529
37.336452	61.220000	0.002563
37.579062	61.250000	0.002562
37.819283	62.020000	0.002579
38.062191	62.060000	0.002596
38.302677	62.820000	0.002613
38.544961	63.070000	0.002648
38.786685	63.620000	0.002648
39.027926	63.880000	0.002682
39.269606	64.420000	0.002682
39.512546	64.460000	0.002699
39.752786	65.230000	0.002717
39.995667	65.260000	0.002734
40.254227	66.030000	0.002762
40.505056	66.050000	0.002769
40.746429	66.820000	0.002786
40.988449	67.080000	0.002823
41.230256	67.620000	0.002822
41.472221	67.880000	0.002857
41.714841	68.420000	0.002858
41.955071	68.460000	0.002876
42.197831	69.220000	0.002893
42.438418	69.250000	0.002911
42.667015	70.020000	0.002940
42.932192	70.420000	0.002967
43.173994	70.820000	0.002967
43.432448	70.850000	0.002984
43.674083	71.610000	0.003023
43.917422	71.650000	0.003021
44.158587	72.420000	0.003060
44.399284	72.450000	0.003061
44.641797	73.220000	0.003077
44.882410	73.250000	0.003097
45.110810	74.020000	0.003126
45.376040	74.270000	0.003135
45.635696	74.820000	0.003155
45.877293	75.070000	0.003195
46.117810	75.630000	0.003193
46.359555	75.870000	0.003235
46.602506	76.420000	0.003233
46.842672	76.450000	0.003253
47.084429	77.220000	0.003272
47.327307	77.260000	0.003292
47.554615	77.670000	0.003325
47.765797	78.420000	0.003335
48.024284	78.460000	0.003353
48.265852	79.230000	0.003374
48.508532	79.260000	0.003395
48.748976	80.030000	0.003415
48.990935	80.280000	0.003456
49.232587	80.830000	0.003458
49.475422	81.070000	0.003500
49.716612	81.630000	0.003501
49.957439	81.670000	0.003523
50.184039	82.430000	0.003547
50.441298	82.460000	0.003568
50.683081	83.230000	0.003610
50.924819	83.260000	0.003612
51.166494	84.030000	0.003656
51.409419	84.070000	0.003659
51.649709	84.830000	0.003682
51.891705	84.870000	0.003708
52.134034	85.630000	0.003730
52.361576	86.020000	0.003769
52.590348	86.060000	0.003784
52.831221	86.820000	0.003831
53.072913	86.860000	0.003837
53.315460	87.620000	0.003860
53.557135	87.660000	0.003893
53.797854	88.420000	0.003949
54.039669	88.460000	0.003953
54.281369	89.230000	0.004006
54.524328	89.260000	0.004015
54.764555	90.030000	0.004053
55.006164	90.060000	0.004092
55.249149	90.820000	0.004127
55.476282	91.230000	0.004181
55.704089	91.270000	0.004211
55.945790	92.030000	0.004271
56.188603	92.060000	0.004317
56.429168	92.830000	0.004336
56.671930	92.860000	0.004410
56.914067	93.630000	0.004548
57.156189	93.660000	0.004650
57.397561	94.430000	0.004902
57.638397	94.470000	0.005370
57.879817	95.230000	0.007272
58.122702	95.270000	0.007558
58.363116	96.030000	0.005949
58.605214	96.280000	0.005945
58.846675	96.840000	0.005990
59.088542	97.080000	0.005961
59.331558	97.630000	0.006047
59.571847	97.660000	0.006179
59.813442	98.430000	0.006469
60.056466	98.460000	0.006723
60.283724	98.870000	0.006601
60.511312	99.630000	0.006390
60.752979	99.670000	0.006863
