Time [s]	Current [A]	Voltage [V]	
0.760657	0.000000	0.000001
0.976014	1.200000	0.000052
1.203591	1.450000	0.000051
1.462772	2.010000	0.000068
1.704046	2.230000	0.000102
1.946027	2.810000	0.000104
2.187780	3.050000	0.000138
2.429750	3.610000	0.000139
2.670330	3.880000	0.000177
2.912769	4.400000	0.000174
3.153153	4.460000	0.000192
3.394661	5.220000	0.000209
3.636870	5.470000	0.000245
3.878507	6.010000	0.000244
4.120238	6.250000	0.000279
4.363374	6.820000	0.000279
4.603543	6.850000	0.000296
4.830270	7.620000	0.000331
5.070930	7.900000	0.000334
5.346732	8.410000	0.000365
5.597400	8.460000	0.000366
5.831495	9.210000	0.000381
6.107556	9.260000	0.000404
6.349853	10.020000	0.000421
6.592175	10.290000	0.000454
6.834247	10.810000	0.000451
7.075652	11.090000	0.000494
7.316355	11.610000	0.000487
7.559137	11.670000	0.000504
7.799399	12.410000	0.000532
8.041164	12.460000	0.000541
8.299528	13.220000	0.000574
8.552522	13.260000	0.000578
8.793088	14.040000	0.000593
9.035124	14.290000	0.000642
9.276997	14.820000	0.000626
9.518619	15.090000	0.000668
9.762130	15.620000	0.000668
10.001888	15.670000	0.000683
10.243356	16.420000	0.000697
10.470266	16.690000	0.000723
10.728144	17.210000	0.000734
10.970167	17.490000	0.000772
11.211952	18.010000	0.000769
11.454076	18.290000	0.000811
11.694012	18.810000	0.000808
11.920659	19.080000	0.000818
12.177640	19.610000	0.000843
12.419055	19.660000	0.000862
12.660865	20.410000	0.000898
12.902806	20.460000	0.000894
13.144148	21.210000	0.000932
13.387393	21.260000	0.000928
13.627662	22.010000	0.000946
13.870383	22.060000	0.000966
14.110948	22.820000	0.000982
14.353008	23.090000	0.001022
14.594892	23.620000	0.001018
14.836836	23.890000	0.001058
15.078123	24.420000	0.001048
15.304759	24.690000	0.001078
15.561808	25.220000	0.001089
15.804229	25.270000	0.001105
16.062384	26.010000	0.001135
16.314017	26.050000	0.001141
16.555493	26.820000	0.001161
16.797251	27.090000	0.001196
17.039017	27.620000	0.001196
17.280634	27.890000	0.001230
17.523497	28.420000	0.001228
17.764279	28.460000	0.001250
18.006607	29.220000	0.001263
18.247257	29.260000	0.001280
18.475951	30.010000	0.001318
18.741177	30.290000	0.001320
19.000492	30.820000	0.001335
19.242114	31.090000	0.001374
19.484160	31.630000	0.001369
19.725605	31.890000	0.001409
19.967052	32.420000	0.001405
20.209420	32.460000	0.001422
20.450029	33.220000	0.001441
20.691910	33.260000	0.001459
20.920114	33.670000	0.001487
21.147901	34.410000	0.001496
21.390511	34.460000	0.001511
21.631160	35.210000	0.001526
21.872757	35.270000	0.001544
22.116051	36.020000	0.001561
22.357759	36.280000	0.001604
22.598438	36.810000	0.001597
22.839983	37.090000	0.001637
23.082986	37.620000	0.001634
23.323393	37.650000	0.001651
23.564980	38.410000	0.001670
23.807972	38.460000	0.001686
24.049815	39.220000	0.001724
24.290769	39.260000	0.001719
24.532312	40.010000	0.001761
24.775094	40.070000	0.001759
25.015280	40.820000	0.001774
25.257374	40.860000	0.001794
25.499958	41.610000	0.001809
25.727181	42.020000	0.001842
25.938603	42.280000	0.001845
26.197209	42.820000	0.001862
26.438550	42.850000	0.001880
26.681199	43.610000	0.001898
26.921745	43.640000	0.001915
27.163763	44.430000	0.001949
27.405668	44.660000	0.001950
27.657604	45.210000	0.001968
27.915855	45.470000	0.001985
28.167892	46.020000	0.002021
28.437120	46.420000	0.002039
28.704528	46.820000	0.002038
28.963018	46.850000	0.002055
29.204323	47.620000	0.002074
29.432641	48.020000	0.002102
29.645240	48.420000	0.002126
29.914988	48.460000	0.002135
30.143366	49.220000	0.002146
30.369628	49.480000	0.002164
30.627149	50.030000	0.002180
30.868627	50.270000	0.002215
31.110524	50.820000	0.002215
31.352149	51.060000	0.002250
31.595178	51.620000	0.002250
31.835108	51.650000	0.002267
32.076946	52.420000	0.002285
32.319652	52.450000	0.002302
32.560184	53.220000	0.002320
32.801976	53.460000	0.002355
33.044006	54.020000	0.002355
33.286908	54.240000	0.002391
33.527682	54.820000	0.002391
33.769255	54.840000	0.002407
34.011906	55.620000	0.002426
34.252436	55.650000	0.002444
34.494137	56.420000	0.002478
34.736067	56.450000	0.002479
34.977735	57.220000	0.002513
35.221119	57.250000	0.002514
35.461255	58.020000	0.002531
35.702928	58.050000	0.002550
35.945754	58.820000	0.002566
36.172832	59.220000	0.002592
36.400764	59.250000	0.002602
36.642521	60.020000	0.002620
36.868746	60.410000	0.002655
37.136208	60.820000	0.002674
37.380772	61.220000	0.002681
37.626804	61.470000	0.002702
37.878610	62.020000	0.002709
38.118732	62.280000	0.002726
38.370741	62.820000	0.002750
38.630419	62.860000	0.002763
38.872172	63.630000	0.002801
39.113842	63.660000	0.002798
39.354235	64.430000	0.002835
39.596161	64.450000	0.002835
39.838510	65.220000	0.002853
40.079236	65.250000	0.002872
40.320863	66.020000	0.002891
40.549232	66.430000	0.002922
40.778445	66.450000	0.002927
41.018865	67.220000	0.002944
41.260532	67.260000	0.002964
41.503271	68.030000	0.002983
41.743880	68.060000	0.003001
41.985735	68.810000	0.003039
42.227500	68.860000	0.003039
42.469138	69.620000	0.003076
42.712232	69.650000	0.003076
42.952489	70.420000	0.003096
43.194229	70.450000	0.003116
43.436997	71.230000	0.003135
43.679025	71.470000	0.003175
43.920872	72.020000	0.003174
44.161368	72.270000	0.003213
44.403191	72.820000	0.003212
44.645657	72.850000	0.003232
44.886239	73.620000	0.003253
45.128147	73.660000	0.003272
45.370838	74.420000	0.003292
45.612689	74.670000	0.003333
45.853365	75.230000	0.003332
46.094997	75.470000	0.003372
46.338057	76.020000	0.003374
46.578371	76.050000	0.003393
46.820304	76.830000	0.003414
47.062931	76.860000	0.003435
47.304827	77.620000	0.003478
47.546377	77.660000	0.003477
47.786871	78.420000	0.003518
48.028883	78.460000	0.003519
48.271231	79.230000	0.003540
48.512011	79.250000	0.003561
48.753643	80.020000	0.003583
48.981972	80.430000	0.003616
49.210978	80.460000	0.003629
49.451495	81.230000	0.003652
49.693263	81.270000	0.003675
49.935886	82.030000	0.003699
50.176522	82.060000	0.003722
50.418183	82.840000	0.003769
50.660305	82.870000	0.003769
50.901888	83.630000	0.003817
51.144879	83.670000	0.003820
51.385488	84.430000	0.003847
51.626958	84.470000	0.003868
51.869648	85.230000	0.003897
52.097126	85.630000	0.003934
52.324732	85.670000	0.003950
52.566385	86.410000	0.003976
52.792988	86.680000	0.004007
53.050104	87.220000	0.004035
53.292857	87.260000	0.004068
53.534633	88.030000	0.004129
53.776505	88.060000	0.004138
54.018247	88.820000	0.004193
54.259054	88.860000	0.004202
54.500545	89.630000	0.004239
54.726866	89.890000	0.004286
54.984139	90.430000	0.004333
55.225930	90.690000	0.004415
55.467642	91.230000	0.004424
55.709276	91.480000	0.004513
55.952359	92.020000	0.004557
56.192650	92.060000	0.004655
56.434269	92.820000	0.004763
56.677029	92.860000	0.004873
56.904561	93.260000	0.005035
57.132363	94.030000	0.005277
57.374028	94.070000	0.005809
57.616718	94.830000	0.006502
57.857493	94.860000	0.007260
58.083767	95.650000	0.010833
58.342113	95.660000	0.004810
58.583755	96.430000	0.004921
58.825767	96.460000	0.004930
59.066268	97.230000	0.005103
59.308113	97.260000	0.005046
59.550785	98.030000	0.005080
59.791106	98.070000	0.005111
60.033132	98.830000	0.005241
60.274895	98.870000	0.005244
60.516539	99.640000	0.005358
60.759626	99.670000	0.005503
